###	C:\Users\witti\Desktop\RefSpectra\pos\PE16_0_18_1_MNa_20eV.mgf
###	G:\20190719_LipidStdsPos\PE_MNa_1-A,2_01_27234.d\analysis.baf
###	PE_MNa_1-A,2_01_27234.d
###	Instrument: maXis
###	Manufacturer: Bruker
###    PE_MNa
###    PeakWidth 5.00, MiniumIntensity 100, S/N 1Apply threshold 0, Threshold 10
###    Retain Residuals no, Create neutrally no,
###    FullScan Parameters: AdductIon (+)+H (-)-H, LowMass 250, HighMass 4000, MaxCharge charge decon 10, MinPeaks 3
###    Perf. isotope decon yes, Max Charge Istopic decon 5, MW agreement 0.00, Abund. cutoff 2.00, Envelope cutoff 75.00
###    MaxRes   Parameters: AdductIon (+)+H (-)-H, LowMass 250, HighMass 4000 
###    Perf. isotope decon yes, Max Charge Istopic decon 5, Abund. cutoff 2.00
###    MSn      Parameters: AdductIon (+)+H (-)-H, LowMass 50, HighMass 2000 
###    Perf. isotope decon yes, Max Charge Istopic decon 4, Abund. cutoff 0.50
###    Global Charge Limit: yes 3, Prefer FullScan Result: yes, Export what: 2 (0=non deconv/1=deconv only/2=mixed), NoMSMSSignals: 50, Intensity threshold: 100, NoMSSignals (deconv): 2, NoMSSignals (non-deconv): 20, NormalizeData: no, SingleCharged: no
###
COM=PE_MNa_1-A,2_01_27234.d
USERNAME=MW
CHARGE=1+, 2+ and 3+

###	+MS2(740.5201), 20.0eV, 14.8min #4433

###FS:    #m/z: 740.52008 #charge undefined
###MS: 
###MSMS: 
BEGIN IONS
TITLE=+MS2(740.5201), 20.0eV, 14.8min #4433
RTINSECONDS=0
SCANS=
PEPMASS=740.52008	
120.96598	134	
138.97533	106	
164.00917	946	
182.01947	150	
577.51305	426	
578.51903	192	
655.32734	120	
697.47549	562	
717.97994	112	
738.50987	462	
739.01435	368	
739.12315	114	
739.15831	102	
739.51612	290	
740.15099	122	
740.28871	156	
740.35318	100	
740.46591	254	
740.51895	20836	
740.82792	122	
741.52141	7276	
742.52549	1188	
850.42822	112	
899.50645	106	
1249.89230	112	
END IONS

